
 ------------------------------------------------------------
     resonance       Raman Scattering Plot
 ------------------------------------------------------------
 Excitation wavelength  514.50 nm
 Convolution lineshape is lorentzian  
 FWHM   20.00  1/cm
 ------------------------------------------------------------
 ------------------------------------------------------------
 # of frequencies :     3
 ------------------------------------------------------------
#  freq [ 1/cm]  S-tot [a.u.]S-real [a.u.]  S-imag [a.u.]
 ------------------------------------------------------------
   1  1584.29        1.6775        1.6773        0.0003
   2  3674.59      114.8807      114.8669        0.0138
   3  3786.71       28.8922       28.8888        0.0034
 ------------------------------------------------------------
  1526.62    0.5931E-04    0.5930E-04    0.9605E-08
  1528.94    0.6415E-04    0.6414E-04    0.1039E-07
  1531.27    0.6963E-04    0.6961E-04    0.1128E-07
  1533.59    0.7583E-04    0.7582E-04    0.1229E-07
  1535.92    0.8290E-04    0.8289E-04    0.1344E-07
  1538.24    0.9100E-04    0.9099E-04    0.1476E-07
  1540.56    0.1003E-03    0.1003E-03    0.1628E-07
  1542.89    0.1112E-03    0.1112E-03    0.1804E-07
  1545.21    0.1239E-03    0.1238E-03    0.2010E-07
  1547.54    0.1388E-03    0.1388E-03    0.2253E-07
  1549.86    0.1566E-03    0.1565E-03    0.2542E-07
  1552.19    0.1778E-03    0.1778E-03    0.2888E-07
  1554.51    0.2036E-03    0.2036E-03    0.3308E-07
  1556.84    0.2352E-03    0.2352E-03    0.3821E-07
  1559.16    0.2744E-03    0.2743E-03    0.4458E-07
  1561.49    0.3235E-03    0.3234E-03    0.5257E-07
  1563.81    0.3860E-03    0.3859E-03    0.6273E-07
  1566.14    0.4665E-03    0.4664E-03    0.7582E-07
  1568.46    0.5714E-03    0.5713E-03    0.9289E-07
  1570.79    0.7091E-03    0.7090E-03    0.1153E-06
  1573.11    0.8897E-03    0.8896E-03    0.1447E-06
  1575.44    0.1122E-02    0.1122E-02    0.1824E-06
  1577.76    0.1403E-02    0.1403E-02    0.2281E-06
  1580.09    0.1700E-02    0.1700E-02    0.2765E-06
  1582.41    0.1932E-02    0.1932E-02    0.3142E-06
  1584.73    0.1997E-02    0.1996E-02    0.3247E-06
  1587.06    0.1858E-02    0.1858E-02    0.3022E-06
  1589.38    0.1589E-02    0.1589E-02    0.2584E-06
  1591.71    0.1291E-02    0.1291E-02    0.2099E-06
  1594.03    0.1027E-02    0.1027E-02    0.1670E-06
  1596.36    0.8152E-03    0.8151E-03    0.1325E-06
  1598.68    0.6521E-03    0.6520E-03    0.1060E-06
  1601.01    0.5280E-03    0.5279E-03    0.8584E-07
  1603.33    0.4333E-03    0.4333E-03    0.7043E-07
  1605.66    0.3604E-03    0.3603E-03    0.5856E-07
  1607.98    0.3034E-03    0.3034E-03    0.4931E-07
  1610.31    0.2585E-03    0.2584E-03    0.4199E-07
  1612.63    0.2224E-03    0.2224E-03    0.3613E-07
  1614.96    0.1932E-03    0.1932E-03    0.3138E-07
  1617.28    0.1693E-03    0.1693E-03    0.2749E-07
  1619.61    0.1495E-03    0.1495E-03    0.2427E-07
  1621.93    0.1329E-03    0.1329E-03    0.2157E-07
  1624.26    0.1189E-03    0.1188E-03    0.1929E-07
  1626.58    0.1069E-03    0.1069E-03    0.1735E-07
  1628.91    0.9670E-04    0.9669E-04    0.1568E-07
  1631.23    0.8787E-04    0.8785E-04    0.1425E-07
  1633.55    0.8018E-04    0.8017E-04    0.1300E-07
  1635.88    0.7347E-04    0.7345E-04    0.1190E-07
  1638.20    0.6756E-04    0.6755E-04    0.1094E-07
  1640.53    0.6234E-04    0.6233E-04    0.1009E-07
  1642.85    0.5771E-04    0.5770E-04    0.9341E-08
  1645.18    0.5358E-04    0.5357E-04    0.8669E-08
  1647.50    0.4988E-04    0.4988E-04    0.8067E-08
  1649.83    0.4656E-04    0.4655E-04    0.7527E-08
  1652.15    0.4356E-04    0.4356E-04    0.7039E-08
  1654.48    0.4085E-04    0.4085E-04    0.6598E-08
  1656.80    0.3839E-04    0.3839E-04    0.6198E-08
  1659.13    0.3615E-04    0.3615E-04    0.5833E-08
  1661.45    0.3411E-04    0.3410E-04    0.5501E-08
  1663.78    0.3223E-04    0.3223E-04    0.5196E-08
  1666.10    0.3052E-04    0.3051E-04    0.4917E-08
  1668.43    0.2894E-04    0.2893E-04    0.4660E-08
  1670.75    0.2748E-04    0.2748E-04    0.4423E-08
  1673.08    0.2614E-04    0.2613E-04    0.4204E-08
  1675.40    0.2489E-04    0.2489E-04    0.4001E-08
  1677.72    0.2374E-04    0.2373E-04    0.3814E-08
  1680.05    0.2267E-04    0.2266E-04    0.3639E-08
  1682.37    0.2167E-04    0.2167E-04    0.3477E-08
  1684.70    0.2074E-04    0.2074E-04    0.3325E-08
  1687.02    0.1987E-04    0.1987E-04    0.3184E-08
  1689.35    0.1906E-04    0.1906E-04    0.3052E-08
  1691.67    0.1830E-04    0.1830E-04    0.2928E-08
  1694.00    0.1759E-04    0.1758E-04    0.2812E-08
  1696.32    0.1692E-04    0.1692E-04    0.2704E-08
  1698.65    0.1629E-04    0.1629E-04    0.2601E-08
  1700.97    0.1570E-04    0.1569E-04    0.2505E-08
  1703.30    0.1514E-04    0.1514E-04    0.2414E-08
  1705.62    0.1461E-04    0.1461E-04    0.2328E-08
  1707.95    0.1412E-04    0.1411E-04    0.2247E-08
  1710.27    0.1365E-04    0.1365E-04    0.2171E-08
  1712.60    0.1320E-04    0.1320E-04    0.2099E-08
  1714.92    0.1278E-04    0.1278E-04    0.2030E-08
  1717.25    0.1238E-04    0.1238E-04    0.1965E-08
  1719.57    0.1201E-04    0.1200E-04    0.1903E-08
  1721.89    0.1165E-04    0.1164E-04    0.1845E-08
  1724.22    0.1130E-04    0.1130E-04    0.1789E-08
  1726.54    0.1098E-04    0.1098E-04    0.1736E-08
  1728.87    0.1067E-04    0.1067E-04    0.1686E-08
  1731.19    0.1037E-04    0.1037E-04    0.1638E-08
  1733.52    0.1009E-04    0.1009E-04    0.1592E-08
  1735.84    0.9825E-05    0.9824E-05    0.1548E-08
  1738.17    0.9569E-05    0.9568E-05    0.1506E-08
  1740.49    0.9324E-05    0.9323E-05    0.1466E-08
  1742.82    0.9090E-05    0.9089E-05    0.1428E-08
  1745.14    0.8867E-05    0.8865E-05    0.1392E-08
  1747.47    0.8652E-05    0.8651E-05    0.1357E-08
  1749.79    0.8447E-05    0.8446E-05    0.1323E-08
  1752.12    0.8251E-05    0.8249E-05    0.1291E-08
  1754.44    0.8062E-05    0.8061E-05    0.1260E-08
  1756.77    0.7881E-05    0.7880E-05    0.1231E-08
  1759.09    0.7708E-05    0.7706E-05    0.1202E-08
  1761.42    0.7541E-05    0.7540E-05    0.1175E-08
  1763.74    0.7381E-05    0.7380E-05    0.1149E-08
  1766.06    0.7227E-05    0.7226E-05    0.1124E-08
  1768.39    0.7079E-05    0.7078E-05    0.1100E-08
  1770.71    0.6936E-05    0.6935E-05    0.1076E-08
  1773.04    0.6799E-05    0.6798E-05    0.1054E-08
  1775.36    0.6667E-05    0.6666E-05    0.1032E-08
  1777.69    0.6540E-05    0.6539E-05    0.1011E-08
  1780.01    0.6417E-05    0.6416E-05    0.9914E-09
  1782.34    0.6299E-05    0.6298E-05    0.9720E-09
  1784.66    0.6185E-05    0.6184E-05    0.9533E-09
  1786.99    0.6075E-05    0.6074E-05    0.9353E-09
  1789.31    0.5968E-05    0.5967E-05    0.9179E-09
  1791.64    0.5866E-05    0.5865E-05    0.9011E-09
  1793.96    0.5767E-05    0.5766E-05    0.8848E-09
  1796.29    0.5671E-05    0.5670E-05    0.8691E-09
  1798.61    0.5578E-05    0.5577E-05    0.8539E-09
  1800.94    0.5489E-05    0.5488E-05    0.8392E-09
  1803.26    0.5402E-05    0.5401E-05    0.8250E-09
  1805.59    0.5318E-05    0.5318E-05    0.8113E-09
  1807.91    0.5237E-05    0.5237E-05    0.7980E-09
  1810.23    0.5159E-05    0.5158E-05    0.7851E-09
  1812.56    0.5083E-05    0.5082E-05    0.7726E-09
  1814.88    0.5009E-05    0.5009E-05    0.7605E-09
  1817.21    0.4938E-05    0.4937E-05    0.7487E-09
  1819.53    0.4869E-05    0.4868E-05    0.7374E-09
  1821.86    0.4802E-05    0.4801E-05    0.7263E-09
  1824.18    0.4737E-05    0.4736E-05    0.7156E-09
  1826.51    0.4674E-05    0.4673E-05    0.7052E-09
  1828.83    0.4613E-05    0.4612E-05    0.6952E-09
  1831.16    0.4554E-05    0.4553E-05    0.6854E-09
  1833.48    0.4496E-05    0.4495E-05    0.6759E-09
  1835.81    0.4440E-05    0.4440E-05    0.6667E-09
  1838.13    0.4386E-05    0.4385E-05    0.6577E-09
  1840.46    0.4333E-05    0.4333E-05    0.6490E-09
  1842.78    0.4282E-05    0.4281E-05    0.6405E-09
  1845.11    0.4232E-05    0.4232E-05    0.6323E-09
  1847.43    0.4184E-05    0.4184E-05    0.6243E-09
  1849.76    0.4137E-05    0.4137E-05    0.6166E-09
  1852.08    0.4092E-05    0.4091E-05    0.6090E-09
  1854.40    0.4047E-05    0.4047E-05    0.6016E-09
  1856.73    0.4004E-05    0.4003E-05    0.5945E-09
  1859.05    0.3962E-05    0.3962E-05    0.5875E-09
  1861.38    0.3921E-05    0.3921E-05    0.5807E-09
  1863.70    0.3882E-05    0.3881E-05    0.5741E-09
  1866.03    0.3843E-05    0.3842E-05    0.5677E-09
  1868.35    0.3805E-05    0.3805E-05    0.5614E-09
  1870.68    0.3769E-05    0.3768E-05    0.5553E-09
  1873.00    0.3733E-05    0.3733E-05    0.5494E-09
  1875.33    0.3699E-05    0.3698E-05    0.5436E-09
  1877.65    0.3665E-05    0.3664E-05    0.5380E-09
  1879.98    0.3632E-05    0.3631E-05    0.5325E-09
  1882.30    0.3600E-05    0.3599E-05    0.5271E-09
  1884.63    0.3569E-05    0.3568E-05    0.5219E-09
  1886.95    0.3538E-05    0.3538E-05    0.5168E-09
  1889.28    0.3509E-05    0.3508E-05    0.5119E-09
  1891.60    0.3480E-05    0.3480E-05    0.5070E-09
  1893.93    0.3452E-05    0.3451E-05    0.5023E-09
  1896.25    0.3425E-05    0.3424E-05    0.4977E-09
  1898.58    0.3398E-05    0.3397E-05    0.4932E-09
  1900.90    0.3372E-05    0.3371E-05    0.4888E-09
  1903.22    0.3347E-05    0.3346E-05    0.4846E-09
  1905.55    0.3322E-05    0.3321E-05    0.4804E-09
  1907.87    0.3298E-05    0.3297E-05    0.4763E-09
  1910.20    0.3274E-05    0.3274E-05    0.4723E-09
  1912.52    0.3251E-05    0.3251E-05    0.4685E-09
  1914.85    0.3229E-05    0.3229E-05    0.4647E-09
  1917.17    0.3207E-05    0.3207E-05    0.4610E-09
  1919.50    0.3186E-05    0.3186E-05    0.4574E-09
  1921.82    0.3166E-05    0.3165E-05    0.4538E-09
  1924.15    0.3145E-05    0.3145E-05    0.4504E-09
  1926.47    0.3126E-05    0.3125E-05    0.4470E-09
  1928.80    0.3106E-05    0.3106E-05    0.4438E-09
  1931.12    0.3088E-05    0.3087E-05    0.4406E-09
  1933.45    0.3070E-05    0.3069E-05    0.4374E-09
  1935.77    0.3052E-05    0.3051E-05    0.4344E-09
  1938.10    0.3034E-05    0.3034E-05    0.4314E-09
  1940.42    0.3017E-05    0.3017E-05    0.4285E-09
  1942.75    0.3001E-05    0.3000E-05    0.4256E-09
  1945.07    0.2985E-05    0.2984E-05    0.4228E-09
  1947.39    0.2969E-05    0.2969E-05    0.4201E-09
  1949.72    0.2954E-05    0.2953E-05    0.4174E-09
  1952.04    0.2939E-05    0.2938E-05    0.4148E-09
  1954.37    0.2924E-05    0.2924E-05    0.4123E-09
  1956.69    0.2910E-05    0.2910E-05    0.4098E-09
  1959.02    0.2896E-05    0.2896E-05    0.4074E-09
  1961.34    0.2883E-05    0.2882E-05    0.4050E-09
  1963.67    0.2869E-05    0.2869E-05    0.4027E-09
  1965.99    0.2857E-05    0.2856E-05    0.4004E-09
  1968.32    0.2844E-05    0.2844E-05    0.3982E-09
  1970.64    0.2832E-05    0.2831E-05    0.3961E-09
  1972.97    0.2820E-05    0.2819E-05    0.3939E-09
  1975.29    0.2808E-05    0.2808E-05    0.3919E-09
  1977.62    0.2797E-05    0.2797E-05    0.3899E-09
  1979.94    0.2786E-05    0.2785E-05    0.3879E-09
  1982.27    0.2775E-05    0.2775E-05    0.3860E-09
  1984.59    0.2765E-05    0.2764E-05    0.3841E-09
  1986.92    0.2754E-05    0.2754E-05    0.3822E-09
  1989.24    0.2744E-05    0.2744E-05    0.3804E-09
  1991.56    0.2735E-05    0.2734E-05    0.3787E-09
  1993.89    0.2725E-05    0.2725E-05    0.3770E-09
  1996.21    0.2716E-05    0.2716E-05    0.3753E-09
  1998.54    0.2707E-05    0.2707E-05    0.3737E-09
  2000.86    0.2698E-05    0.2698E-05    0.3721E-09
  2003.19    0.2690E-05    0.2690E-05    0.3705E-09
  2005.51    0.2682E-05    0.2681E-05    0.3690E-09
  2007.84    0.2674E-05    0.2673E-05    0.3675E-09
  2010.16    0.2666E-05    0.2666E-05    0.3660E-09
  2012.49    0.2658E-05    0.2658E-05    0.3646E-09
  2014.81    0.2651E-05    0.2651E-05    0.3632E-09
  2017.14    0.2644E-05    0.2643E-05    0.3618E-09
  2019.46    0.2637E-05    0.2636E-05    0.3605E-09
  2021.79    0.2630E-05    0.2630E-05    0.3592E-09
  2024.11    0.2623E-05    0.2623E-05    0.3580E-09
  2026.44    0.2617E-05    0.2617E-05    0.3567E-09
  2028.76    0.2611E-05    0.2610E-05    0.3555E-09
  2031.09    0.2605E-05    0.2604E-05    0.3544E-09
  2033.41    0.2599E-05    0.2599E-05    0.3532E-09
  2035.73    0.2593E-05    0.2593E-05    0.3521E-09
  2038.06    0.2588E-05    0.2587E-05    0.3510E-09
  2040.38    0.2582E-05    0.2582E-05    0.3500E-09
  2042.71    0.2577E-05    0.2577E-05    0.3489E-09
  2045.03    0.2572E-05    0.2572E-05    0.3479E-09
  2047.36    0.2568E-05    0.2567E-05    0.3469E-09
  2049.68    0.2563E-05    0.2563E-05    0.3460E-09
  2052.01    0.2558E-05    0.2558E-05    0.3450E-09
  2054.33    0.2554E-05    0.2554E-05    0.3441E-09
  2056.66    0.2550E-05    0.2550E-05    0.3433E-09
  2058.98    0.2546E-05    0.2545E-05    0.3424E-09
  2061.31    0.2542E-05    0.2542E-05    0.3416E-09
  2063.63    0.2538E-05    0.2538E-05    0.3407E-09
  2065.96    0.2535E-05    0.2534E-05    0.3399E-09
  2068.28    0.2531E-05    0.2531E-05    0.3392E-09
  2070.61    0.2528E-05    0.2527E-05    0.3384E-09
  2072.93    0.2525E-05    0.2524E-05    0.3377E-09
  2075.26    0.2522E-05    0.2521E-05    0.3370E-09
  2077.58    0.2519E-05    0.2518E-05    0.3363E-09
  2079.90    0.2516E-05    0.2516E-05    0.3356E-09
  2082.23    0.2513E-05    0.2513E-05    0.3350E-09
  2084.55    0.2511E-05    0.2510E-05    0.3344E-09
  2086.88    0.2508E-05    0.2508E-05    0.3338E-09
  2089.20    0.2506E-05    0.2506E-05    0.3332E-09
  2091.53    0.2504E-05    0.2503E-05    0.3326E-09
  2093.85    0.2502E-05    0.2501E-05    0.3321E-09
  2096.18    0.2500E-05    0.2500E-05    0.3315E-09
  2098.50    0.2498E-05    0.2498E-05    0.3310E-09
  2100.83    0.2496E-05    0.2496E-05    0.3305E-09
  2103.15    0.2495E-05    0.2494E-05    0.3300E-09
  2105.48    0.2493E-05    0.2493E-05    0.3296E-09
  2107.80    0.2492E-05    0.2492E-05    0.3291E-09
  2110.13    0.2491E-05    0.2490E-05    0.3287E-09
  2112.45    0.2490E-05    0.2489E-05    0.3283E-09
  2114.78    0.2488E-05    0.2488E-05    0.3279E-09
  2117.10    0.2488E-05    0.2487E-05    0.3275E-09
  2119.43    0.2487E-05    0.2486E-05    0.3272E-09
  2121.75    0.2486E-05    0.2486E-05    0.3268E-09
  2124.07    0.2485E-05    0.2485E-05    0.3265E-09
  2126.40    0.2485E-05    0.2485E-05    0.3262E-09
  2128.72    0.2484E-05    0.2484E-05    0.3259E-09
  2131.05    0.2484E-05    0.2484E-05    0.3256E-09
  2133.37    0.2484E-05    0.2484E-05    0.3253E-09
  2135.70    0.2484E-05    0.2483E-05    0.3251E-09
  2138.02    0.2484E-05    0.2483E-05    0.3248E-09
  2140.35    0.2484E-05    0.2483E-05    0.3246E-09
  2142.67    0.2484E-05    0.2484E-05    0.3244E-09
  2145.00    0.2484E-05    0.2484E-05    0.3242E-09
  2147.32    0.2484E-05    0.2484E-05    0.3240E-09
  2149.65    0.2485E-05    0.2485E-05    0.3238E-09
  2151.97    0.2485E-05    0.2485E-05    0.3237E-09
  2154.30    0.2486E-05    0.2486E-05    0.3235E-09
  2156.62    0.2487E-05    0.2486E-05    0.3234E-09
  2158.95    0.2487E-05    0.2487E-05    0.3232E-09
  2161.27    0.2488E-05    0.2488E-05    0.3231E-09
  2163.60    0.2489E-05    0.2489E-05    0.3230E-09
  2165.92    0.2490E-05    0.2490E-05    0.3230E-09
  2168.25    0.2491E-05    0.2491E-05    0.3229E-09
  2170.57    0.2492E-05    0.2492E-05    0.3228E-09
  2172.89    0.2494E-05    0.2493E-05    0.3228E-09
  2175.22    0.2495E-05    0.2495E-05    0.3227E-09
  2177.54    0.2497E-05    0.2496E-05    0.3227E-09
  2179.87    0.2498E-05    0.2498E-05    0.3227E-09
  2182.19    0.2500E-05    0.2499E-05    0.3227E-09
  2184.52    0.2501E-05    0.2501E-05    0.3227E-09
  2186.84    0.2503E-05    0.2503E-05    0.3228E-09
  2189.17    0.2505E-05    0.2505E-05    0.3228E-09
  2191.49    0.2507E-05    0.2506E-05    0.3228E-09
  2193.82    0.2509E-05    0.2508E-05    0.3229E-09
  2196.14    0.2511E-05    0.2510E-05    0.3230E-09
  2198.47    0.2513E-05    0.2513E-05    0.3230E-09
  2200.79    0.2515E-05    0.2515E-05    0.3231E-09
  2203.12    0.2517E-05    0.2517E-05    0.3232E-09
  2205.44    0.2520E-05    0.2519E-05    0.3233E-09
  2207.77    0.2522E-05    0.2522E-05    0.3235E-09
  2210.09    0.2525E-05    0.2524E-05    0.3236E-09
  2212.42    0.2527E-05    0.2527E-05    0.3237E-09
  2214.74    0.2530E-05    0.2529E-05    0.3239E-09
  2217.06    0.2533E-05    0.2532E-05    0.3241E-09
  2219.39    0.2535E-05    0.2535E-05    0.3242E-09
  2221.71    0.2538E-05    0.2538E-05    0.3244E-09
  2224.04    0.2541E-05    0.2541E-05    0.3246E-09
  2226.36    0.2544E-05    0.2544E-05    0.3248E-09
  2228.69    0.2547E-05    0.2547E-05    0.3250E-09
  2231.01    0.2550E-05    0.2550E-05    0.3253E-09
  2233.34    0.2553E-05    0.2553E-05    0.3255E-09
  2235.66    0.2557E-05    0.2556E-05    0.3257E-09
  2237.99    0.2560E-05    0.2560E-05    0.3260E-09
  2240.31    0.2563E-05    0.2563E-05    0.3262E-09
  2242.64    0.2567E-05    0.2567E-05    0.3265E-09
  2244.96    0.2570E-05    0.2570E-05    0.3268E-09
  2247.29    0.2574E-05    0.2574E-05    0.3271E-09
  2249.61    0.2578E-05    0.2577E-05    0.3274E-09
  2251.94    0.2581E-05    0.2581E-05    0.3277E-09
  2254.26    0.2585E-05    0.2585E-05    0.3280E-09
  2256.59    0.2589E-05    0.2589E-05    0.3283E-09
  2258.91    0.2593E-05    0.2593E-05    0.3287E-09
  2261.23    0.2597E-05    0.2597E-05    0.3290E-09
  2263.56    0.2601E-05    0.2601E-05    0.3294E-09
  2265.88    0.2605E-05    0.2605E-05    0.3298E-09
  2268.21    0.2609E-05    0.2609E-05    0.3301E-09
  2270.53    0.2614E-05    0.2613E-05    0.3305E-09
  2272.86    0.2618E-05    0.2618E-05    0.3309E-09
  2275.18    0.2622E-05    0.2622E-05    0.3313E-09
  2277.51    0.2627E-05    0.2626E-05    0.3317E-09
  2279.83    0.2631E-05    0.2631E-05    0.3321E-09
  2282.16    0.2636E-05    0.2635E-05    0.3326E-09
  2284.48    0.2640E-05    0.2640E-05    0.3330E-09
  2286.81    0.2645E-05    0.2645E-05    0.3334E-09
  2289.13    0.2650E-05    0.2649E-05    0.3339E-09
  2291.46    0.2655E-05    0.2654E-05    0.3344E-09
  2293.78    0.2660E-05    0.2659E-05    0.3348E-09
  2296.11    0.2664E-05    0.2664E-05    0.3353E-09
  2298.43    0.2670E-05    0.2669E-05    0.3358E-09
  2300.76    0.2675E-05    0.2674E-05    0.3363E-09
  2303.08    0.2680E-05    0.2679E-05    0.3368E-09
  2305.40    0.2685E-05    0.2685E-05    0.3373E-09
  2307.73    0.2690E-05    0.2690E-05    0.3378E-09
  2310.05    0.2696E-05    0.2695E-05    0.3384E-09
  2312.38    0.2701E-05    0.2701E-05    0.3389E-09
  2314.70    0.2706E-05    0.2706E-05    0.3394E-09
  2317.03    0.2712E-05    0.2712E-05    0.3400E-09
  2319.35    0.2717E-05    0.2717E-05    0.3406E-09
  2321.68    0.2723E-05    0.2723E-05    0.3411E-09
  2324.00    0.2729E-05    0.2728E-05    0.3417E-09
  2326.33    0.2735E-05    0.2734E-05    0.3423E-09
  2328.65    0.2740E-05    0.2740E-05    0.3429E-09
  2330.98    0.2746E-05    0.2746E-05    0.3435E-09
  2333.30    0.2752E-05    0.2752E-05    0.3441E-09
  2335.63    0.2758E-05    0.2758E-05    0.3448E-09
  2337.95    0.2764E-05    0.2764E-05    0.3454E-09
  2340.28    0.2770E-05    0.2770E-05    0.3460E-09
  2342.60    0.2777E-05    0.2776E-05    0.3467E-09
  2344.93    0.2783E-05    0.2783E-05    0.3473E-09
  2347.25    0.2789E-05    0.2789E-05    0.3480E-09
  2349.57    0.2796E-05    0.2795E-05    0.3487E-09
  2351.90    0.2802E-05    0.2802E-05    0.3494E-09
  2354.22    0.2809E-05    0.2808E-05    0.3501E-09
  2356.55    0.2815E-05    0.2815E-05    0.3508E-09
  2358.87    0.2822E-05    0.2822E-05    0.3515E-09
  2361.20    0.2829E-05    0.2828E-05    0.3522E-09
  2363.52    0.2835E-05    0.2835E-05    0.3529E-09
  2365.85    0.2842E-05    0.2842E-05    0.3536E-09
  2368.17    0.2849E-05    0.2849E-05    0.3544E-09
  2370.50    0.2856E-05    0.2856E-05    0.3551E-09
  2372.82    0.2863E-05    0.2863E-05    0.3559E-09
  2375.15    0.2870E-05    0.2870E-05    0.3566E-09
  2377.47    0.2877E-05    0.2877E-05    0.3574E-09
  2379.80    0.2885E-05    0.2884E-05    0.3582E-09
