
 ------------------------------------------------------------
     resonance       Raman Scattering Plot
 ------------------------------------------------------------
 Excitation wavelength  514.50 nm
 Convolution lineshape is lorentzian  
 FWHM   20.00  1/cm
 ------------------------------------------------------------
 ------------------------------------------------------------
 # of frequencies :     3
 ------------------------------------------------------------
#  freq [ 1/cm]  S-tot [a.u.]S-real [a.u.]  S-imag [a.u.]
 ------------------------------------------------------------
   1  1591.50        0.8350        0.8347        0.0003
   2  3680.21      115.5505      115.5375        0.0129
   3  3783.86       28.4042       28.4010        0.0032
 ------------------------------------------------------------
  1533.82    0.2981E-04    0.2980E-04    0.1068E-07
  1536.13    0.3220E-04    0.3218E-04    0.1155E-07
  1538.45    0.3489E-04    0.3488E-04    0.1254E-07
  1540.76    0.3794E-04    0.3792E-04    0.1366E-07
  1543.08    0.4141E-04    0.4140E-04    0.1493E-07
  1545.39    0.4539E-04    0.4538E-04    0.1638E-07
  1547.71    0.4998E-04    0.4996E-04    0.1806E-07
  1550.02    0.5529E-04    0.5527E-04    0.2001E-07
  1552.34    0.6150E-04    0.6148E-04    0.2228E-07
  1554.65    0.6881E-04    0.6878E-04    0.2496E-07
  1556.96    0.7748E-04    0.7745E-04    0.2814E-07
  1559.28    0.8787E-04    0.8784E-04    0.3194E-07
  1561.59    0.1004E-03    0.1004E-03    0.3655E-07
  1563.91    0.1158E-03    0.1158E-03    0.4218E-07
  1566.22    0.1348E-03    0.1348E-03    0.4914E-07
  1568.54    0.1587E-03    0.1586E-03    0.5787E-07
  1570.85    0.1889E-03    0.1888E-03    0.6895E-07
  1573.17    0.2278E-03    0.2277E-03    0.8319E-07
  1575.48    0.2783E-03    0.2782E-03    0.1017E-06
  1577.80    0.3446E-03    0.3445E-03    0.1260E-06
  1580.11    0.4315E-03    0.4314E-03    0.1578E-06
  1582.43    0.5434E-03    0.5432E-03    0.1988E-06
  1584.74    0.6798E-03    0.6796E-03    0.2488E-06
  1587.06    0.8269E-03    0.8266E-03    0.3026E-06
  1589.37    0.9472E-03    0.9469E-03    0.3467E-06
  1591.68    0.9899E-03    0.9896E-03    0.3624E-06
  1594.00    0.9323E-03    0.9319E-03    0.3412E-06
  1596.31    0.8044E-03    0.8041E-03    0.2944E-06
  1598.63    0.6571E-03    0.6569E-03    0.2405E-06
  1600.94    0.5241E-03    0.5239E-03    0.1917E-06
  1603.26    0.4164E-03    0.4162E-03    0.1523E-06
  1605.57    0.3330E-03    0.3329E-03    0.1217E-06
  1607.89    0.2695E-03    0.2694E-03    0.9847E-07
  1610.20    0.2210E-03    0.2209E-03    0.8071E-07
  1612.52    0.1837E-03    0.1836E-03    0.6703E-07
  1614.83    0.1546E-03    0.1545E-03    0.5637E-07
  1617.15    0.1316E-03    0.1316E-03    0.4795E-07
  1619.46    0.1132E-03    0.1132E-03    0.4122E-07
  1621.78    0.9836E-04    0.9832E-04    0.3577E-07
  1624.09    0.8617E-04    0.8614E-04    0.3131E-07
  1626.40    0.7608E-04    0.7606E-04    0.2761E-07
  1628.72    0.6765E-04    0.6763E-04    0.2452E-07
  1631.03    0.6054E-04    0.6051E-04    0.2191E-07
  1633.35    0.5448E-04    0.5446E-04    0.1969E-07
  1635.66    0.4930E-04    0.4928E-04    0.1779E-07
  1637.98    0.4482E-04    0.4480E-04    0.1615E-07
  1640.29    0.4093E-04    0.4092E-04    0.1473E-07
  1642.61    0.3753E-04    0.3752E-04    0.1348E-07
  1644.92    0.3455E-04    0.3453E-04    0.1239E-07
  1647.24    0.3191E-04    0.3190E-04    0.1142E-07
  1649.55    0.2957E-04    0.2956E-04    0.1056E-07
  1651.87    0.2748E-04    0.2747E-04    0.9799E-08
  1654.18    0.2562E-04    0.2561E-04    0.9115E-08
  1656.50    0.2394E-04    0.2393E-04    0.8500E-08
  1658.81    0.2243E-04    0.2242E-04    0.7946E-08
  1661.12    0.2106E-04    0.2106E-04    0.7445E-08
  1663.44    0.1983E-04    0.1982E-04    0.6990E-08
  1665.75    0.1870E-04    0.1869E-04    0.6576E-08
  1668.07    0.1767E-04    0.1766E-04    0.6199E-08
  1670.38    0.1673E-04    0.1672E-04    0.5853E-08
  1672.70    0.1586E-04    0.1586E-04    0.5536E-08
  1675.01    0.1507E-04    0.1506E-04    0.5244E-08
  1677.33    0.1434E-04    0.1433E-04    0.4976E-08
  1679.64    0.1366E-04    0.1366E-04    0.4727E-08
  1681.96    0.1304E-04    0.1303E-04    0.4498E-08
  1684.27    0.1246E-04    0.1245E-04    0.4285E-08
  1686.59    0.1192E-04    0.1191E-04    0.4087E-08
  1688.90    0.1142E-04    0.1141E-04    0.3903E-08
  1691.22    0.1095E-04    0.1095E-04    0.3732E-08
  1693.53    0.1052E-04    0.1051E-04    0.3572E-08
  1695.85    0.1011E-04    0.1011E-04    0.3422E-08
  1698.16    0.9729E-05    0.9725E-05    0.3282E-08
  1700.47    0.9372E-05    0.9369E-05    0.3151E-08
  1702.79    0.9037E-05    0.9034E-05    0.3027E-08
  1705.10    0.8723E-05    0.8720E-05    0.2912E-08
  1707.42    0.8427E-05    0.8424E-05    0.2802E-08
  1709.73    0.8148E-05    0.8145E-05    0.2700E-08
  1712.05    0.7885E-05    0.7882E-05    0.2603E-08
  1714.36    0.7637E-05    0.7634E-05    0.2511E-08
  1716.68    0.7402E-05    0.7400E-05    0.2425E-08
  1718.99    0.7181E-05    0.7178E-05    0.2343E-08
  1721.31    0.6971E-05    0.6969E-05    0.2265E-08
  1723.62    0.6772E-05    0.6770E-05    0.2192E-08
  1725.94    0.6583E-05    0.6581E-05    0.2122E-08
  1728.25    0.6404E-05    0.6402E-05    0.2056E-08
  1730.57    0.6234E-05    0.6232E-05    0.1993E-08
  1732.88    0.6072E-05    0.6070E-05    0.1933E-08
  1735.19    0.5918E-05    0.5917E-05    0.1876E-08
  1737.51    0.5772E-05    0.5770E-05    0.1821E-08
  1739.82    0.5632E-05    0.5630E-05    0.1769E-08
  1742.14    0.5499E-05    0.5497E-05    0.1720E-08
  1744.45    0.5372E-05    0.5370E-05    0.1673E-08
  1746.77    0.5251E-05    0.5249E-05    0.1627E-08
  1749.08    0.5135E-05    0.5133E-05    0.1584E-08
  1751.40    0.5024E-05    0.5022E-05    0.1543E-08
  1753.71    0.4918E-05    0.4916E-05    0.1503E-08
  1756.03    0.4816E-05    0.4815E-05    0.1466E-08
  1758.34    0.4719E-05    0.4718E-05    0.1429E-08
  1760.66    0.4626E-05    0.4625E-05    0.1394E-08
  1762.97    0.4537E-05    0.4535E-05    0.1361E-08
  1765.29    0.4451E-05    0.4450E-05    0.1329E-08
  1767.60    0.4369E-05    0.4368E-05    0.1298E-08
  1769.91    0.4290E-05    0.4289E-05    0.1268E-08
  1772.23    0.4214E-05    0.4213E-05    0.1240E-08
  1774.54    0.4142E-05    0.4140E-05    0.1213E-08
  1776.86    0.4072E-05    0.4070E-05    0.1186E-08
  1779.17    0.4004E-05    0.4003E-05    0.1161E-08
  1781.49    0.3940E-05    0.3938E-05    0.1136E-08
  1783.80    0.3877E-05    0.3876E-05    0.1113E-08
  1786.12    0.3817E-05    0.3816E-05    0.1090E-08
  1788.43    0.3760E-05    0.3758E-05    0.1068E-08
  1790.75    0.3704E-05    0.3703E-05    0.1047E-08
  1793.06    0.3650E-05    0.3649E-05    0.1027E-08
  1795.38    0.3598E-05    0.3597E-05    0.1007E-08
  1797.69    0.3549E-05    0.3548E-05    0.9879E-09
  1800.01    0.3500E-05    0.3499E-05    0.9695E-09
  1802.32    0.3454E-05    0.3453E-05    0.9517E-09
  1804.63    0.3409E-05    0.3408E-05    0.9345E-09
  1806.95    0.3366E-05    0.3365E-05    0.9179E-09
  1809.26    0.3324E-05    0.3323E-05    0.9018E-09
  1811.58    0.3284E-05    0.3283E-05    0.8862E-09
  1813.89    0.3244E-05    0.3244E-05    0.8711E-09
  1816.21    0.3207E-05    0.3206E-05    0.8565E-09
  1818.52    0.3170E-05    0.3169E-05    0.8423E-09
  1820.84    0.3135E-05    0.3134E-05    0.8286E-09
  1823.15    0.3101E-05    0.3100E-05    0.8153E-09
  1825.47    0.3068E-05    0.3067E-05    0.8024E-09
  1827.78    0.3036E-05    0.3035E-05    0.7899E-09
  1830.10    0.3005E-05    0.3004E-05    0.7778E-09
  1832.41    0.2975E-05    0.2974E-05    0.7660E-09
  1834.73    0.2946E-05    0.2945E-05    0.7545E-09
  1837.04    0.2918E-05    0.2917E-05    0.7434E-09
  1839.35    0.2890E-05    0.2890E-05    0.7327E-09
  1841.67    0.2864E-05    0.2863E-05    0.7222E-09
  1843.98    0.2839E-05    0.2838E-05    0.7120E-09
  1846.30    0.2814E-05    0.2813E-05    0.7021E-09
  1848.61    0.2790E-05    0.2789E-05    0.6925E-09
  1850.93    0.2767E-05    0.2766E-05    0.6832E-09
  1853.24    0.2744E-05    0.2743E-05    0.6741E-09
  1855.56    0.2722E-05    0.2722E-05    0.6652E-09
  1857.87    0.2701E-05    0.2700E-05    0.6566E-09
  1860.19    0.2680E-05    0.2680E-05    0.6483E-09
  1862.50    0.2660E-05    0.2660E-05    0.6401E-09
  1864.82    0.2641E-05    0.2641E-05    0.6322E-09
  1867.13    0.2622E-05    0.2622E-05    0.6245E-09
  1869.45    0.2604E-05    0.2604E-05    0.6170E-09
  1871.76    0.2587E-05    0.2586E-05    0.6096E-09
  1874.07    0.2569E-05    0.2569E-05    0.6025E-09
  1876.39    0.2553E-05    0.2552E-05    0.5956E-09
  1878.70    0.2537E-05    0.2536E-05    0.5888E-09
  1881.02    0.2521E-05    0.2520E-05    0.5822E-09
  1883.33    0.2506E-05    0.2505E-05    0.5758E-09
  1885.65    0.2491E-05    0.2491E-05    0.5695E-09
  1887.96    0.2477E-05    0.2476E-05    0.5634E-09
  1890.28    0.2463E-05    0.2462E-05    0.5574E-09
  1892.59    0.2450E-05    0.2449E-05    0.5516E-09
  1894.91    0.2436E-05    0.2436E-05    0.5459E-09
  1897.22    0.2424E-05    0.2423E-05    0.5404E-09
  1899.54    0.2412E-05    0.2411E-05    0.5350E-09
  1901.85    0.2400E-05    0.2399E-05    0.5297E-09
  1904.17    0.2388E-05    0.2388E-05    0.5246E-09
  1906.48    0.2377E-05    0.2376E-05    0.5196E-09
  1908.79    0.2366E-05    0.2365E-05    0.5147E-09
  1911.11    0.2355E-05    0.2355E-05    0.5099E-09
  1913.42    0.2345E-05    0.2345E-05    0.5052E-09
  1915.74    0.2335E-05    0.2335E-05    0.5007E-09
  1918.05    0.2326E-05    0.2325E-05    0.4962E-09
  1920.37    0.2316E-05    0.2316E-05    0.4919E-09
  1922.68    0.2307E-05    0.2307E-05    0.4876E-09
  1925.00    0.2298E-05    0.2298E-05    0.4835E-09
  1927.31    0.2290E-05    0.2289E-05    0.4794E-09
  1929.63    0.2282E-05    0.2281E-05    0.4754E-09
  1931.94    0.2274E-05    0.2273E-05    0.4716E-09
  1934.26    0.2266E-05    0.2265E-05    0.4678E-09
  1936.57    0.2258E-05    0.2258E-05    0.4641E-09
  1938.89    0.2251E-05    0.2251E-05    0.4605E-09
  1941.20    0.2244E-05    0.2244E-05    0.4569E-09
  1943.51    0.2237E-05    0.2237E-05    0.4535E-09
  1945.83    0.2231E-05    0.2230E-05    0.4501E-09
  1948.14    0.2224E-05    0.2224E-05    0.4468E-09
  1950.46    0.2218E-05    0.2218E-05    0.4436E-09
  1952.77    0.2212E-05    0.2212E-05    0.4404E-09
  1955.09    0.2207E-05    0.2206E-05    0.4373E-09
  1957.40    0.2201E-05    0.2201E-05    0.4343E-09
  1959.72    0.2196E-05    0.2195E-05    0.4314E-09
  1962.03    0.2191E-05    0.2190E-05    0.4285E-09
  1964.35    0.2186E-05    0.2185E-05    0.4257E-09
  1966.66    0.2181E-05    0.2180E-05    0.4229E-09
  1968.98    0.2176E-05    0.2176E-05    0.4202E-09
  1971.29    0.2172E-05    0.2171E-05    0.4176E-09
  1973.61    0.2167E-05    0.2167E-05    0.4150E-09
  1975.92    0.2163E-05    0.2163E-05    0.4125E-09
  1978.23    0.2159E-05    0.2159E-05    0.4100E-09
  1980.55    0.2156E-05    0.2155E-05    0.4076E-09
  1982.86    0.2152E-05    0.2152E-05    0.4052E-09
  1985.18    0.2148E-05    0.2148E-05    0.4029E-09
  1987.49    0.2145E-05    0.2145E-05    0.4006E-09
  1989.81    0.2142E-05    0.2141E-05    0.3984E-09
  1992.12    0.2139E-05    0.2138E-05    0.3962E-09
  1994.44    0.2136E-05    0.2136E-05    0.3941E-09
  1996.75    0.2133E-05    0.2133E-05    0.3921E-09
  1999.07    0.2131E-05    0.2130E-05    0.3900E-09
  2001.38    0.2128E-05    0.2128E-05    0.3880E-09
  2003.70    0.2126E-05    0.2125E-05    0.3861E-09
  2006.01    0.2123E-05    0.2123E-05    0.3842E-09
  2008.33    0.2121E-05    0.2121E-05    0.3823E-09
  2010.64    0.2119E-05    0.2119E-05    0.3805E-09
  2012.95    0.2117E-05    0.2117E-05    0.3787E-09
  2015.27    0.2116E-05    0.2115E-05    0.3770E-09
  2017.58    0.2114E-05    0.2114E-05    0.3753E-09
  2019.90    0.2112E-05    0.2112E-05    0.3736E-09
  2022.21    0.2111E-05    0.2111E-05    0.3720E-09
  2024.53    0.2110E-05    0.2109E-05    0.3704E-09
  2026.84    0.2109E-05    0.2108E-05    0.3689E-09
  2029.16    0.2107E-05    0.2107E-05    0.3673E-09
  2031.47    0.2106E-05    0.2106E-05    0.3659E-09
  2033.79    0.2106E-05    0.2105E-05    0.3644E-09
  2036.10    0.2105E-05    0.2104E-05    0.3630E-09
  2038.42    0.2104E-05    0.2104E-05    0.3616E-09
  2040.73    0.2104E-05    0.2103E-05    0.3602E-09
  2043.05    0.2103E-05    0.2103E-05    0.3589E-09
  2045.36    0.2103E-05    0.2102E-05    0.3576E-09
  2047.67    0.2102E-05    0.2102E-05    0.3563E-09
  2049.99    0.2102E-05    0.2102E-05    0.3551E-09
  2052.30    0.2102E-05    0.2102E-05    0.3539E-09
  2054.62    0.2102E-05    0.2102E-05    0.3527E-09
  2056.93    0.2102E-05    0.2102E-05    0.3516E-09
  2059.25    0.2102E-05    0.2102E-05    0.3504E-09
  2061.56    0.2102E-05    0.2102E-05    0.3493E-09
  2063.88    0.2103E-05    0.2102E-05    0.3482E-09
  2066.19    0.2103E-05    0.2103E-05    0.3472E-09
  2068.51    0.2104E-05    0.2103E-05    0.3462E-09
  2070.82    0.2104E-05    0.2104E-05    0.3452E-09
  2073.14    0.2105E-05    0.2105E-05    0.3442E-09
  2075.45    0.2106E-05    0.2105E-05    0.3432E-09
  2077.77    0.2106E-05    0.2106E-05    0.3423E-09
  2080.08    0.2107E-05    0.2107E-05    0.3414E-09
  2082.39    0.2108E-05    0.2108E-05    0.3405E-09
  2084.71    0.2109E-05    0.2109E-05    0.3397E-09
  2087.02    0.2110E-05    0.2110E-05    0.3388E-09
  2089.34    0.2112E-05    0.2111E-05    0.3380E-09
  2091.65    0.2113E-05    0.2112E-05    0.3372E-09
  2093.97    0.2114E-05    0.2114E-05    0.3364E-09
  2096.28    0.2116E-05    0.2115E-05    0.3357E-09
  2098.60    0.2117E-05    0.2117E-05    0.3349E-09
  2100.91    0.2119E-05    0.2118E-05    0.3342E-09
  2103.23    0.2120E-05    0.2120E-05    0.3335E-09
  2105.54    0.2122E-05    0.2122E-05    0.3329E-09
  2107.86    0.2124E-05    0.2123E-05    0.3322E-09
  2110.17    0.2125E-05    0.2125E-05    0.3316E-09
  2112.49    0.2127E-05    0.2127E-05    0.3310E-09
  2114.80    0.2129E-05    0.2129E-05    0.3304E-09
  2117.11    0.2131E-05    0.2131E-05    0.3298E-09
  2119.43    0.2133E-05    0.2133E-05    0.3292E-09
  2121.74    0.2135E-05    0.2135E-05    0.3287E-09
  2124.06    0.2138E-05    0.2137E-05    0.3281E-09
  2126.37    0.2140E-05    0.2140E-05    0.3276E-09
  2128.69    0.2142E-05    0.2142E-05    0.3271E-09
  2131.00    0.2145E-05    0.2144E-05    0.3267E-09
  2133.32    0.2147E-05    0.2147E-05    0.3262E-09
  2135.63    0.2150E-05    0.2149E-05    0.3257E-09
  2137.95    0.2152E-05    0.2152E-05    0.3253E-09
  2140.26    0.2155E-05    0.2155E-05    0.3249E-09
  2142.58    0.2158E-05    0.2157E-05    0.3245E-09
  2144.89    0.2160E-05    0.2160E-05    0.3241E-09
  2147.21    0.2163E-05    0.2163E-05    0.3238E-09
  2149.52    0.2166E-05    0.2166E-05    0.3234E-09
  2151.84    0.2169E-05    0.2169E-05    0.3231E-09
  2154.15    0.2172E-05    0.2172E-05    0.3227E-09
  2156.46    0.2175E-05    0.2175E-05    0.3224E-09
  2158.78    0.2178E-05    0.2178E-05    0.3221E-09
  2161.09    0.2181E-05    0.2181E-05    0.3219E-09
  2163.41    0.2184E-05    0.2184E-05    0.3216E-09
  2165.72    0.2188E-05    0.2187E-05    0.3213E-09
  2168.04    0.2191E-05    0.2191E-05    0.3211E-09
  2170.35    0.2194E-05    0.2194E-05    0.3209E-09
  2172.67    0.2198E-05    0.2197E-05    0.3207E-09
  2174.98    0.2201E-05    0.2201E-05    0.3205E-09
  2177.30    0.2205E-05    0.2204E-05    0.3203E-09
  2179.61    0.2208E-05    0.2208E-05    0.3201E-09
  2181.93    0.2212E-05    0.2212E-05    0.3199E-09
  2184.24    0.2216E-05    0.2215E-05    0.3198E-09
  2186.56    0.2219E-05    0.2219E-05    0.3197E-09
  2188.87    0.2223E-05    0.2223E-05    0.3195E-09
  2191.18    0.2227E-05    0.2227E-05    0.3194E-09
  2193.50    0.2231E-05    0.2231E-05    0.3193E-09
  2195.81    0.2235E-05    0.2235E-05    0.3192E-09
  2198.13    0.2239E-05    0.2239E-05    0.3192E-09
  2200.44    0.2243E-05    0.2243E-05    0.3191E-09
  2202.76    0.2247E-05    0.2247E-05    0.3190E-09
  2205.07    0.2251E-05    0.2251E-05    0.3190E-09
  2207.39    0.2256E-05    0.2255E-05    0.3190E-09
  2209.70    0.2260E-05    0.2259E-05    0.3190E-09
  2212.02    0.2264E-05    0.2264E-05    0.3189E-09
  2214.33    0.2268E-05    0.2268E-05    0.3190E-09
  2216.65    0.2273E-05    0.2273E-05    0.3190E-09
  2218.96    0.2277E-05    0.2277E-05    0.3190E-09
  2221.28    0.2282E-05    0.2282E-05    0.3190E-09
  2223.59    0.2286E-05    0.2286E-05    0.3191E-09
  2225.90    0.2291E-05    0.2291E-05    0.3191E-09
  2228.22    0.2296E-05    0.2295E-05    0.3192E-09
  2230.53    0.2300E-05    0.2300E-05    0.3193E-09
  2232.85    0.2305E-05    0.2305E-05    0.3194E-09
  2235.16    0.2310E-05    0.2310E-05    0.3195E-09
  2237.48    0.2315E-05    0.2315E-05    0.3196E-09
  2239.79    0.2320E-05    0.2320E-05    0.3197E-09
  2242.11    0.2325E-05    0.2324E-05    0.3198E-09
  2244.42    0.2330E-05    0.2329E-05    0.3200E-09
  2246.74    0.2335E-05    0.2335E-05    0.3201E-09
  2249.05    0.2340E-05    0.2340E-05    0.3203E-09
  2251.37    0.2345E-05    0.2345E-05    0.3205E-09
  2253.68    0.2350E-05    0.2350E-05    0.3207E-09
  2256.00    0.2356E-05    0.2355E-05    0.3208E-09
  2258.31    0.2361E-05    0.2361E-05    0.3210E-09
  2260.62    0.2366E-05    0.2366E-05    0.3213E-09
  2262.94    0.2372E-05    0.2371E-05    0.3215E-09
  2265.25    0.2377E-05    0.2377E-05    0.3217E-09
  2267.57    0.2383E-05    0.2382E-05    0.3219E-09
  2269.88    0.2388E-05    0.2388E-05    0.3222E-09
  2272.20    0.2394E-05    0.2394E-05    0.3224E-09
  2274.51    0.2400E-05    0.2399E-05    0.3227E-09
  2276.83    0.2405E-05    0.2405E-05    0.3230E-09
  2279.14    0.2411E-05    0.2411E-05    0.3233E-09
  2281.46    0.2417E-05    0.2416E-05    0.3236E-09
  2283.77    0.2423E-05    0.2422E-05    0.3239E-09
  2286.09    0.2429E-05    0.2428E-05    0.3242E-09
  2288.40    0.2435E-05    0.2434E-05    0.3245E-09
  2290.72    0.2441E-05    0.2440E-05    0.3248E-09
  2293.03    0.2447E-05    0.2446E-05    0.3252E-09
  2295.34    0.2453E-05    0.2452E-05    0.3255E-09
  2297.66    0.2459E-05    0.2459E-05    0.3259E-09
  2299.97    0.2465E-05    0.2465E-05    0.3262E-09
  2302.29    0.2471E-05    0.2471E-05    0.3266E-09
  2304.60    0.2478E-05    0.2477E-05    0.3270E-09
  2306.92    0.2484E-05    0.2484E-05    0.3274E-09
  2309.23    0.2490E-05    0.2490E-05    0.3278E-09
  2311.55    0.2497E-05    0.2497E-05    0.3282E-09
  2313.86    0.2503E-05    0.2503E-05    0.3286E-09
  2316.18    0.2510E-05    0.2510E-05    0.3291E-09
  2318.49    0.2517E-05    0.2516E-05    0.3295E-09
  2320.81    0.2523E-05    0.2523E-05    0.3299E-09
  2323.12    0.2530E-05    0.2530E-05    0.3304E-09
  2325.44    0.2537E-05    0.2536E-05    0.3309E-09
  2327.75    0.2543E-05    0.2543E-05    0.3313E-09
  2330.06    0.2550E-05    0.2550E-05    0.3318E-09
  2332.38    0.2557E-05    0.2557E-05    0.3323E-09
  2334.69    0.2564E-05    0.2564E-05    0.3328E-09
  2337.01    0.2571E-05    0.2571E-05    0.3333E-09
  2339.32    0.2578E-05    0.2578E-05    0.3338E-09
  2341.64    0.2585E-05    0.2585E-05    0.3343E-09
  2343.95    0.2593E-05    0.2592E-05    0.3348E-09
  2346.27    0.2600E-05    0.2599E-05    0.3354E-09
  2348.58    0.2607E-05    0.2607E-05    0.3359E-09
  2350.90    0.2614E-05    0.2614E-05    0.3365E-09
  2353.21    0.2622E-05    0.2621E-05    0.3370E-09
  2355.53    0.2629E-05    0.2629E-05    0.3376E-09
  2357.84    0.2637E-05    0.2636E-05    0.3382E-09
  2360.16    0.2644E-05    0.2644E-05    0.3388E-09
  2362.47    0.2652E-05    0.2652E-05    0.3394E-09
  2364.78    0.2660E-05    0.2659E-05    0.3400E-09
  2367.10    0.2667E-05    0.2667E-05    0.3406E-09
  2369.41    0.2675E-05    0.2675E-05    0.3412E-09
  2371.73    0.2683E-05    0.2682E-05    0.3419E-09
  2374.04    0.2691E-05    0.2690E-05    0.3425E-09
  2376.36    0.2699E-05    0.2698E-05    0.3431E-09
  2378.67    0.2707E-05    0.2706E-05    0.3438E-09
  2380.99    0.2715E-05    0.2714E-05    0.3445E-09
  2383.30    0.2723E-05    0.2722E-05    0.3451E-09
