
 ------------------------------------------------------------
     resonance       Raman Scattering Plot
 ------------------------------------------------------------
 Excitation wavelength  514.50 nm
 Convolution lineshape is lorentzian  
 FWHM   20.00  1/cm
 ------------------------------------------------------------
 ------------------------------------------------------------
 # of frequencies :     3
 ------------------------------------------------------------
#  freq [ 1/cm]  S-tot [a.u.]S-real [a.u.]  S-imag [a.u.]
 ------------------------------------------------------------
   1  1591.50        0.8354        0.8349        0.0005
   2  3680.21      115.5964      115.5557        0.0407
   3  3783.86       28.4166       28.4067        0.0100
 ------------------------------------------------------------
  1533.82    0.2982E-04    0.2980E-04    0.1916E-07
  1536.13    0.3221E-04    0.3219E-04    0.2072E-07
  1538.45    0.3490E-04    0.3488E-04    0.2248E-07
  1540.76    0.3796E-04    0.3793E-04    0.2447E-07
  1543.08    0.4143E-04    0.4141E-04    0.2673E-07
  1545.39    0.4541E-04    0.4538E-04    0.2933E-07
  1547.71    0.5000E-04    0.4997E-04    0.3232E-07
  1550.02    0.5532E-04    0.5528E-04    0.3579E-07
  1552.34    0.6153E-04    0.6149E-04    0.3984E-07
  1554.65    0.6884E-04    0.6880E-04    0.4460E-07
  1556.96    0.7752E-04    0.7747E-04    0.5026E-07
  1559.28    0.8791E-04    0.8786E-04    0.5704E-07
  1561.59    0.1005E-03    0.1004E-03    0.6524E-07
  1563.91    0.1159E-03    0.1158E-03    0.7527E-07
  1566.22    0.1349E-03    0.1348E-03    0.8768E-07
  1568.54    0.1587E-03    0.1586E-03    0.1032E-06
  1570.85    0.1890E-03    0.1889E-03    0.1230E-06
  1573.17    0.2279E-03    0.2277E-03    0.1483E-06
  1575.48    0.2785E-03    0.2783E-03    0.1813E-06
  1577.80    0.3448E-03    0.3446E-03    0.2246E-06
  1580.11    0.4317E-03    0.4315E-03    0.2813E-06
  1582.43    0.5436E-03    0.5433E-03    0.3542E-06
  1584.74    0.6801E-03    0.6797E-03    0.4433E-06
  1587.06    0.8273E-03    0.8267E-03    0.5392E-06
  1589.37    0.9477E-03    0.9470E-03    0.6177E-06
  1591.68    0.9904E-03    0.9898E-03    0.6456E-06
  1594.00    0.9327E-03    0.9321E-03    0.6080E-06
  1596.31    0.8047E-03    0.8042E-03    0.5245E-06
  1598.63    0.6575E-03    0.6570E-03    0.4285E-06
  1600.94    0.5244E-03    0.5240E-03    0.3417E-06
  1603.26    0.4166E-03    0.4163E-03    0.2714E-06
  1605.57    0.3332E-03    0.3330E-03    0.2170E-06
  1607.89    0.2696E-03    0.2695E-03    0.1755E-06
  1610.20    0.2211E-03    0.2210E-03    0.1439E-06
  1612.52    0.1838E-03    0.1837E-03    0.1195E-06
  1614.83    0.1547E-03    0.1546E-03    0.1006E-06
  1617.15    0.1317E-03    0.1316E-03    0.8556E-07
  1619.46    0.1133E-03    0.1132E-03    0.7357E-07
  1621.78    0.9841E-04    0.9834E-04    0.6387E-07
  1624.09    0.8621E-04    0.8616E-04    0.5591E-07
  1626.41    0.7612E-04    0.7607E-04    0.4933E-07
  1628.72    0.6768E-04    0.6764E-04    0.4383E-07
  1631.03    0.6056E-04    0.6053E-04    0.3919E-07
  1633.35    0.5451E-04    0.5447E-04    0.3524E-07
  1635.66    0.4932E-04    0.4929E-04    0.3185E-07
  1637.98    0.4484E-04    0.4481E-04    0.2893E-07
  1640.29    0.4095E-04    0.4092E-04    0.2639E-07
  1642.61    0.3755E-04    0.3753E-04    0.2417E-07
  1644.92    0.3456E-04    0.3454E-04    0.2222E-07
  1647.24    0.3192E-04    0.3190E-04    0.2050E-07
  1649.55    0.2958E-04    0.2956E-04    0.1898E-07
  1651.87    0.2750E-04    0.2748E-04    0.1761E-07
  1654.18    0.2563E-04    0.2561E-04    0.1640E-07
  1656.50    0.2395E-04    0.2394E-04    0.1530E-07
  1658.81    0.2244E-04    0.2243E-04    0.1432E-07
  1661.13    0.2107E-04    0.2106E-04    0.1342E-07
  1663.44    0.1983E-04    0.1982E-04    0.1261E-07
  1665.75    0.1871E-04    0.1869E-04    0.1188E-07
  1668.07    0.1768E-04    0.1766E-04    0.1120E-07
  1670.38    0.1673E-04    0.1672E-04    0.1059E-07
  1672.70    0.1587E-04    0.1586E-04    0.1002E-07
  1675.01    0.1507E-04    0.1507E-04    0.9506E-08
  1677.33    0.1434E-04    0.1433E-04    0.9028E-08
  1679.64    0.1367E-04    0.1366E-04    0.8586E-08
  1681.96    0.1304E-04    0.1303E-04    0.8177E-08
  1684.27    0.1246E-04    0.1245E-04    0.7799E-08
  1686.59    0.1192E-04    0.1192E-04    0.7447E-08
  1688.90    0.1142E-04    0.1142E-04    0.7120E-08
  1691.22    0.1096E-04    0.1095E-04    0.6815E-08
  1693.53    0.1052E-04    0.1051E-04    0.6530E-08
  1695.85    0.1011E-04    0.1011E-04    0.6264E-08
  1698.16    0.9733E-05    0.9727E-05    0.6015E-08
  1700.47    0.9376E-05    0.9371E-05    0.5781E-08
  1702.79    0.9041E-05    0.9036E-05    0.5562E-08
  1705.10    0.8727E-05    0.8721E-05    0.5356E-08
  1707.42    0.8431E-05    0.8425E-05    0.5162E-08
  1709.73    0.8152E-05    0.8147E-05    0.4979E-08
  1712.05    0.7889E-05    0.7884E-05    0.4807E-08
  1714.36    0.7640E-05    0.7636E-05    0.4644E-08
  1716.68    0.7406E-05    0.7401E-05    0.4491E-08
  1718.99    0.7184E-05    0.7180E-05    0.4345E-08
  1721.31    0.6974E-05    0.6970E-05    0.4208E-08
  1723.62    0.6775E-05    0.6771E-05    0.4077E-08
  1725.94    0.6586E-05    0.6582E-05    0.3953E-08
  1728.25    0.6407E-05    0.6403E-05    0.3835E-08
  1730.57    0.6237E-05    0.6233E-05    0.3724E-08
  1732.88    0.6075E-05    0.6072E-05    0.3617E-08
  1735.19    0.5921E-05    0.5918E-05    0.3516E-08
  1737.51    0.5774E-05    0.5771E-05    0.3420E-08
  1739.82    0.5635E-05    0.5631E-05    0.3328E-08
  1742.14    0.5502E-05    0.5498E-05    0.3240E-08
  1744.45    0.5374E-05    0.5371E-05    0.3156E-08
  1746.77    0.5253E-05    0.5250E-05    0.3076E-08
  1749.08    0.5137E-05    0.5134E-05    0.3000E-08
  1751.40    0.5026E-05    0.5023E-05    0.2927E-08
  1753.71    0.4920E-05    0.4917E-05    0.2857E-08
  1756.03    0.4819E-05    0.4816E-05    0.2789E-08
  1758.34    0.4721E-05    0.4719E-05    0.2725E-08
  1760.66    0.4628E-05    0.4625E-05    0.2664E-08
  1762.97    0.4539E-05    0.4536E-05    0.2605E-08
  1765.29    0.4453E-05    0.4451E-05    0.2548E-08
  1767.60    0.4371E-05    0.4369E-05    0.2493E-08
  1769.91    0.4292E-05    0.4290E-05    0.2441E-08
  1772.23    0.4216E-05    0.4214E-05    0.2391E-08
  1774.54    0.4144E-05    0.4141E-05    0.2342E-08
  1776.86    0.4074E-05    0.4071E-05    0.2296E-08
  1779.17    0.4006E-05    0.4004E-05    0.2251E-08
  1781.49    0.3941E-05    0.3939E-05    0.2208E-08
  1783.80    0.3879E-05    0.3877E-05    0.2167E-08
  1786.12    0.3819E-05    0.3817E-05    0.2126E-08
  1788.43    0.3761E-05    0.3759E-05    0.2088E-08
  1790.75    0.3706E-05    0.3704E-05    0.2051E-08
  1793.06    0.3652E-05    0.3650E-05    0.2015E-08
  1795.38    0.3600E-05    0.3598E-05    0.1980E-08
  1797.69    0.3550E-05    0.3548E-05    0.1947E-08
  1800.01    0.3502E-05    0.3500E-05    0.1914E-08
  1802.32    0.3456E-05    0.3454E-05    0.1883E-08
  1804.63    0.3411E-05    0.3409E-05    0.1853E-08
  1806.95    0.3367E-05    0.3365E-05    0.1824E-08
  1809.26    0.3325E-05    0.3324E-05    0.1796E-08
  1811.58    0.3285E-05    0.3283E-05    0.1768E-08
  1813.89    0.3246E-05    0.3244E-05    0.1742E-08
  1816.21    0.3208E-05    0.3206E-05    0.1716E-08
  1818.52    0.3172E-05    0.3170E-05    0.1692E-08
  1820.84    0.3136E-05    0.3135E-05    0.1668E-08
  1823.15    0.3102E-05    0.3101E-05    0.1644E-08
  1825.47    0.3069E-05    0.3067E-05    0.1622E-08
  1827.78    0.3037E-05    0.3035E-05    0.1600E-08
  1830.10    0.3006E-05    0.3005E-05    0.1579E-08
  1832.41    0.2976E-05    0.2975E-05    0.1558E-08
  1834.73    0.2947E-05    0.2946E-05    0.1539E-08
  1837.04    0.2919E-05    0.2917E-05    0.1519E-08
  1839.35    0.2892E-05    0.2890E-05    0.1501E-08
  1841.67    0.2865E-05    0.2864E-05    0.1482E-08
  1843.98    0.2840E-05    0.2838E-05    0.1465E-08
  1846.30    0.2815E-05    0.2814E-05    0.1448E-08
  1848.61    0.2791E-05    0.2790E-05    0.1431E-08
  1850.93    0.2768E-05    0.2766E-05    0.1415E-08
  1853.24    0.2745E-05    0.2744E-05    0.1399E-08
  1855.56    0.2723E-05    0.2722E-05    0.1384E-08
  1857.87    0.2702E-05    0.2701E-05    0.1369E-08
  1860.19    0.2682E-05    0.2680E-05    0.1355E-08
  1862.50    0.2662E-05    0.2660E-05    0.1341E-08
  1864.82    0.2642E-05    0.2641E-05    0.1327E-08
  1867.13    0.2624E-05    0.2622E-05    0.1314E-08
  1869.45    0.2605E-05    0.2604E-05    0.1301E-08
  1871.76    0.2588E-05    0.2586E-05    0.1288E-08
  1874.07    0.2571E-05    0.2569E-05    0.1276E-08
  1876.39    0.2554E-05    0.2553E-05    0.1264E-08
  1878.70    0.2538E-05    0.2537E-05    0.1253E-08
  1881.02    0.2522E-05    0.2521E-05    0.1242E-08
  1883.33    0.2507E-05    0.2506E-05    0.1231E-08
  1885.65    0.2492E-05    0.2491E-05    0.1220E-08
  1887.96    0.2478E-05    0.2477E-05    0.1210E-08
  1890.28    0.2464E-05    0.2463E-05    0.1200E-08
  1892.59    0.2451E-05    0.2449E-05    0.1190E-08
  1894.91    0.2438E-05    0.2436E-05    0.1180E-08
  1897.22    0.2425E-05    0.2424E-05    0.1171E-08
  1899.54    0.2413E-05    0.2411E-05    0.1162E-08
  1901.85    0.2401E-05    0.2400E-05    0.1153E-08
  1904.17    0.2389E-05    0.2388E-05    0.1144E-08
  1906.48    0.2378E-05    0.2377E-05    0.1136E-08
  1908.79    0.2367E-05    0.2366E-05    0.1128E-08
  1911.11    0.2356E-05    0.2355E-05    0.1120E-08
  1913.42    0.2346E-05    0.2345E-05    0.1112E-08
  1915.74    0.2336E-05    0.2335E-05    0.1105E-08
  1918.05    0.2327E-05    0.2325E-05    0.1097E-08
  1920.37    0.2317E-05    0.2316E-05    0.1090E-08
  1922.68    0.2308E-05    0.2307E-05    0.1083E-08
  1925.00    0.2299E-05    0.2298E-05    0.1076E-08
  1927.31    0.2291E-05    0.2290E-05    0.1069E-08
  1929.63    0.2283E-05    0.2282E-05    0.1063E-08
  1931.94    0.2275E-05    0.2274E-05    0.1057E-08
  1934.26    0.2267E-05    0.2266E-05    0.1050E-08
  1936.57    0.2259E-05    0.2258E-05    0.1044E-08
  1938.89    0.2252E-05    0.2251E-05    0.1039E-08
  1941.20    0.2245E-05    0.2244E-05    0.1033E-08
  1943.51    0.2238E-05    0.2237E-05    0.1027E-08
  1945.83    0.2232E-05    0.2231E-05    0.1022E-08
  1948.14    0.2225E-05    0.2224E-05    0.1017E-08
  1950.46    0.2219E-05    0.2218E-05    0.1011E-08
  1952.77    0.2213E-05    0.2212E-05    0.1006E-08
  1955.09    0.2208E-05    0.2207E-05    0.1001E-08
  1957.40    0.2202E-05    0.2201E-05    0.9967E-09
  1959.72    0.2197E-05    0.2196E-05    0.9920E-09
  1962.03    0.2191E-05    0.2190E-05    0.9875E-09
  1964.35    0.2186E-05    0.2186E-05    0.9831E-09
  1966.66    0.2182E-05    0.2181E-05    0.9787E-09
  1968.98    0.2177E-05    0.2176E-05    0.9745E-09
  1971.29    0.2173E-05    0.2172E-05    0.9704E-09
  1973.61    0.2168E-05    0.2167E-05    0.9665E-09
  1975.92    0.2164E-05    0.2163E-05    0.9626E-09
  1978.23    0.2160E-05    0.2159E-05    0.9588E-09
  1980.55    0.2156E-05    0.2156E-05    0.9551E-09
  1982.86    0.2153E-05    0.2152E-05    0.9515E-09
  1985.18    0.2149E-05    0.2148E-05    0.9480E-09
  1987.49    0.2146E-05    0.2145E-05    0.9446E-09
  1989.81    0.2143E-05    0.2142E-05    0.9413E-09
  1992.12    0.2140E-05    0.2139E-05    0.9380E-09
  1994.44    0.2137E-05    0.2136E-05    0.9349E-09
  1996.75    0.2134E-05    0.2133E-05    0.9318E-09
  1999.07    0.2131E-05    0.2131E-05    0.9289E-09
  2001.38    0.2129E-05    0.2128E-05    0.9260E-09
  2003.70    0.2127E-05    0.2126E-05    0.9232E-09
  2006.01    0.2124E-05    0.2123E-05    0.9204E-09
  2008.33    0.2122E-05    0.2121E-05    0.9178E-09
  2010.64    0.2120E-05    0.2119E-05    0.9152E-09
  2012.95    0.2118E-05    0.2117E-05    0.9127E-09
  2015.27    0.2117E-05    0.2116E-05    0.9102E-09
  2017.58    0.2115E-05    0.2114E-05    0.9078E-09
  2019.90    0.2113E-05    0.2112E-05    0.9055E-09
  2022.21    0.2112E-05    0.2111E-05    0.9033E-09
  2024.53    0.2111E-05    0.2110E-05    0.9011E-09
  2026.84    0.2109E-05    0.2109E-05    0.8990E-09
  2029.16    0.2108E-05    0.2107E-05    0.8970E-09
  2031.47    0.2107E-05    0.2106E-05    0.8950E-09
  2033.79    0.2106E-05    0.2106E-05    0.8931E-09
  2036.10    0.2106E-05    0.2105E-05    0.8913E-09
  2038.42    0.2105E-05    0.2104E-05    0.8895E-09
  2040.73    0.2104E-05    0.2104E-05    0.8877E-09
  2043.05    0.2104E-05    0.2103E-05    0.8861E-09
  2045.36    0.2104E-05    0.2103E-05    0.8844E-09
  2047.67    0.2103E-05    0.2102E-05    0.8829E-09
  2049.99    0.2103E-05    0.2102E-05    0.8814E-09
  2052.30    0.2103E-05    0.2102E-05    0.8799E-09
  2054.62    0.2103E-05    0.2102E-05    0.8785E-09
  2056.93    0.2103E-05    0.2102E-05    0.8772E-09
  2059.25    0.2103E-05    0.2102E-05    0.8759E-09
  2061.56    0.2103E-05    0.2102E-05    0.8746E-09
  2063.88    0.2104E-05    0.2103E-05    0.8734E-09
  2066.19    0.2104E-05    0.2103E-05    0.8723E-09
  2068.51    0.2105E-05    0.2104E-05    0.8711E-09
  2070.82    0.2105E-05    0.2104E-05    0.8701E-09
  2073.14    0.2106E-05    0.2105E-05    0.8691E-09
  2075.45    0.2106E-05    0.2106E-05    0.8681E-09
  2077.77    0.2107E-05    0.2106E-05    0.8672E-09
  2080.08    0.2108E-05    0.2107E-05    0.8663E-09
  2082.39    0.2109E-05    0.2108E-05    0.8655E-09
  2084.71    0.2110E-05    0.2109E-05    0.8647E-09
  2087.02    0.2111E-05    0.2110E-05    0.8640E-09
  2089.34    0.2112E-05    0.2112E-05    0.8633E-09
  2091.65    0.2114E-05    0.2113E-05    0.8626E-09
  2093.97    0.2115E-05    0.2114E-05    0.8620E-09
  2096.28    0.2116E-05    0.2116E-05    0.8614E-09
  2098.60    0.2118E-05    0.2117E-05    0.8608E-09
  2100.91    0.2119E-05    0.2119E-05    0.8603E-09
  2103.23    0.2121E-05    0.2120E-05    0.8599E-09
  2105.54    0.2123E-05    0.2122E-05    0.8594E-09
  2107.86    0.2125E-05    0.2124E-05    0.8591E-09
  2110.17    0.2126E-05    0.2125E-05    0.8587E-09
  2112.49    0.2128E-05    0.2127E-05    0.8584E-09
  2114.80    0.2130E-05    0.2129E-05    0.8581E-09
  2117.12    0.2132E-05    0.2131E-05    0.8579E-09
  2119.43    0.2134E-05    0.2133E-05    0.8577E-09
  2121.74    0.2136E-05    0.2136E-05    0.8575E-09
  2124.06    0.2139E-05    0.2138E-05    0.8573E-09
  2126.37    0.2141E-05    0.2140E-05    0.8572E-09
  2128.69    0.2143E-05    0.2142E-05    0.8572E-09
  2131.00    0.2146E-05    0.2145E-05    0.8571E-09
  2133.32    0.2148E-05    0.2147E-05    0.8571E-09
  2135.63    0.2151E-05    0.2150E-05    0.8571E-09
  2137.95    0.2153E-05    0.2152E-05    0.8572E-09
  2140.26    0.2156E-05    0.2155E-05    0.8573E-09
  2142.58    0.2158E-05    0.2158E-05    0.8574E-09
  2144.89    0.2161E-05    0.2160E-05    0.8576E-09
  2147.21    0.2164E-05    0.2163E-05    0.8577E-09
  2149.52    0.2167E-05    0.2166E-05    0.8580E-09
  2151.84    0.2170E-05    0.2169E-05    0.8582E-09
  2154.15    0.2173E-05    0.2172E-05    0.8585E-09
  2156.46    0.2176E-05    0.2175E-05    0.8588E-09
  2158.78    0.2179E-05    0.2178E-05    0.8591E-09
  2161.09    0.2182E-05    0.2181E-05    0.8595E-09
  2163.41    0.2185E-05    0.2184E-05    0.8599E-09
  2165.72    0.2189E-05    0.2188E-05    0.8603E-09
  2168.04    0.2192E-05    0.2191E-05    0.8607E-09
  2170.35    0.2195E-05    0.2194E-05    0.8612E-09
  2172.67    0.2199E-05    0.2198E-05    0.8617E-09
  2174.98    0.2202E-05    0.2201E-05    0.8622E-09
  2177.30    0.2206E-05    0.2205E-05    0.8628E-09
  2179.61    0.2209E-05    0.2208E-05    0.8634E-09
  2181.93    0.2213E-05    0.2212E-05    0.8640E-09
  2184.24    0.2217E-05    0.2216E-05    0.8646E-09
  2186.56    0.2220E-05    0.2219E-05    0.8653E-09
  2188.87    0.2224E-05    0.2223E-05    0.8660E-09
  2191.18    0.2228E-05    0.2227E-05    0.8667E-09
  2193.50    0.2232E-05    0.2231E-05    0.8674E-09
  2195.81    0.2236E-05    0.2235E-05    0.8682E-09
  2198.13    0.2240E-05    0.2239E-05    0.8690E-09
  2200.44    0.2244E-05    0.2243E-05    0.8698E-09
  2202.76    0.2248E-05    0.2247E-05    0.8706E-09
  2205.07    0.2252E-05    0.2251E-05    0.8715E-09
  2207.39    0.2256E-05    0.2256E-05    0.8724E-09
  2209.70    0.2261E-05    0.2260E-05    0.8733E-09
  2212.02    0.2265E-05    0.2264E-05    0.8743E-09
  2214.33    0.2269E-05    0.2269E-05    0.8752E-09
  2216.65    0.2274E-05    0.2273E-05    0.8762E-09
  2218.96    0.2278E-05    0.2277E-05    0.8772E-09
  2221.28    0.2283E-05    0.2282E-05    0.8783E-09
  2223.59    0.2287E-05    0.2287E-05    0.8793E-09
  2225.90    0.2292E-05    0.2291E-05    0.8804E-09
  2228.22    0.2297E-05    0.2296E-05    0.8815E-09
  2230.53    0.2301E-05    0.2301E-05    0.8826E-09
  2232.85    0.2306E-05    0.2305E-05    0.8838E-09
  2235.16    0.2311E-05    0.2310E-05    0.8850E-09
  2237.48    0.2316E-05    0.2315E-05    0.8862E-09
  2239.79    0.2321E-05    0.2320E-05    0.8874E-09
  2242.11    0.2326E-05    0.2325E-05    0.8887E-09
  2244.42    0.2331E-05    0.2330E-05    0.8899E-09
  2246.74    0.2336E-05    0.2335E-05    0.8912E-09
  2249.05    0.2341E-05    0.2340E-05    0.8925E-09
  2251.37    0.2346E-05    0.2345E-05    0.8939E-09
  2253.68    0.2351E-05    0.2350E-05    0.8952E-09
  2256.00    0.2357E-05    0.2356E-05    0.8966E-09
  2258.31    0.2362E-05    0.2361E-05    0.8980E-09
  2260.62    0.2367E-05    0.2366E-05    0.8994E-09
  2262.94    0.2373E-05    0.2372E-05    0.9009E-09
  2265.25    0.2378E-05    0.2377E-05    0.9024E-09
  2267.57    0.2384E-05    0.2383E-05    0.9039E-09
  2269.88    0.2389E-05    0.2388E-05    0.9054E-09
  2272.20    0.2395E-05    0.2394E-05    0.9069E-09
  2274.51    0.2401E-05    0.2400E-05    0.9085E-09
  2276.83    0.2406E-05    0.2405E-05    0.9100E-09
  2279.14    0.2412E-05    0.2411E-05    0.9117E-09
  2281.46    0.2418E-05    0.2417E-05    0.9133E-09
  2283.77    0.2424E-05    0.2423E-05    0.9149E-09
  2286.09    0.2430E-05    0.2429E-05    0.9166E-09
  2288.40    0.2436E-05    0.2435E-05    0.9183E-09
  2290.72    0.2442E-05    0.2441E-05    0.9200E-09
  2293.03    0.2448E-05    0.2447E-05    0.9217E-09
  2295.34    0.2454E-05    0.2453E-05    0.9235E-09
  2297.66    0.2460E-05    0.2459E-05    0.9252E-09
  2299.97    0.2466E-05    0.2465E-05    0.9270E-09
  2302.29    0.2472E-05    0.2471E-05    0.9289E-09
  2304.60    0.2479E-05    0.2478E-05    0.9307E-09
  2306.92    0.2485E-05    0.2484E-05    0.9326E-09
  2309.23    0.2491E-05    0.2490E-05    0.9344E-09
  2311.55    0.2498E-05    0.2497E-05    0.9363E-09
  2313.86    0.2504E-05    0.2503E-05    0.9383E-09
  2316.18    0.2511E-05    0.2510E-05    0.9402E-09
  2318.49    0.2518E-05    0.2517E-05    0.9422E-09
  2320.81    0.2524E-05    0.2523E-05    0.9442E-09
  2323.12    0.2531E-05    0.2530E-05    0.9462E-09
  2325.44    0.2538E-05    0.2537E-05    0.9482E-09
  2327.75    0.2544E-05    0.2544E-05    0.9503E-09
  2330.06    0.2551E-05    0.2550E-05    0.9523E-09
  2332.38    0.2558E-05    0.2557E-05    0.9544E-09
  2334.69    0.2565E-05    0.2564E-05    0.9565E-09
  2337.01    0.2572E-05    0.2571E-05    0.9587E-09
  2339.32    0.2579E-05    0.2578E-05    0.9608E-09
  2341.64    0.2586E-05    0.2585E-05    0.9630E-09
  2343.95    0.2594E-05    0.2593E-05    0.9652E-09
  2346.27    0.2601E-05    0.2600E-05    0.9674E-09
  2348.58    0.2608E-05    0.2607E-05    0.9697E-09
  2350.90    0.2615E-05    0.2615E-05    0.9720E-09
  2353.21    0.2623E-05    0.2622E-05    0.9742E-09
  2355.53    0.2630E-05    0.2629E-05    0.9766E-09
  2357.84    0.2638E-05    0.2637E-05    0.9789E-09
  2360.16    0.2645E-05    0.2644E-05    0.9812E-09
  2362.47    0.2653E-05    0.2652E-05    0.9836E-09
  2364.78    0.2661E-05    0.2660E-05    0.9860E-09
  2367.10    0.2668E-05    0.2667E-05    0.9884E-09
  2369.41    0.2676E-05    0.2675E-05    0.9909E-09
  2371.73    0.2684E-05    0.2683E-05    0.9933E-09
  2374.04    0.2692E-05    0.2691E-05    0.9958E-09
  2376.36    0.2700E-05    0.2699E-05    0.9983E-09
  2378.67    0.2708E-05    0.2707E-05    0.1001E-08
  2380.99    0.2716E-05    0.2715E-05    0.1003E-08
  2383.30    0.2724E-05    0.2723E-05    0.1006E-08
